{
    "extinction": [
        1.35,
        1.37,
        1.39,
        1.4,
        1.4,
        1.41,
        1.43,
        1.44,
        1.47,
        1.49,
        1.53,
        1.57,
        1.61,
        1.66,
        1.7,
        1.75,
        1.79,
        1.84,
        1.88,
        1.94,
        2.0,
        2.06,
        2.12,
        2.19,
        2.27,
        2.35,
        2.43,
        2.5,
        2.58,
        2.65,
        2.71,
        2.77,
        2.82,
        2.88,
        2.91,
        2.93,
        2.99,
        3.05,
        3.1,
        3.19,
        3.28,
        3.39,
        3.56,
        3.79,
        4.06,
        4.39,
        4.83,
        5.39,
        6.12
    ],
    "index": [
        1.29,
        1.35,
        1.42,
        1.45,
        1.47,
        1.49,
        1.47,
        1.47,
        1.47,
        1.47,
        1.48,
        1.48,
        1.5,
        1.51,
        1.53,
        1.56,
        1.59,
        1.62,
        1.64,
        1.65,
        1.67,
        1.69,
        1.74,
        1.78,
        1.85,
        1.93,
        2.02,
        2.12,
        2.24,
        2.35,
        2.48,
        2.59,
        2.67,
        2.74,
        2.86,
        2.95,
        2.94,
        2.88,
        2.92,
        2.86,
        2.87,
        2.94,
        2.96,
        2.92,
        2.97,
        3.03,
        3.09,
        3.11,
        3.17
    ],
    "wavelength": [
        188.0,
        192.0,
        195.0,
        199.0,
        203.0,
        207.0,
        212.0,
        216.0,
        221.0,
        226.0,
        231.0,
        237.0,
        243.0,
        249.0,
        255.0,
        262.0,
        269.0,
        276.0,
        284.0,
        292.0,
        301.0,
        311.0,
        320.0,
        332.0,
        342.0,
        354.0,
        368.0,
        381.0,
        397.0,
        413.0,
        431.0,
        451.0,
        471.0,
        496.0,
        521.0,
        549.0,
        582.0,
        617.0,
        659.0,
        704.0,
        756.0,
        821.0,
        892.0,
        984.0,
        1088.0,
        1216.0,
        1393.0,
        1610.0,
        1937.0
    ],
    "reference": "P. B. Johnson and R. W. Christy. Optical constants of transition metals: Ti, V, Cr, Mn, Fe, Co, Ni, and Pd, <a href=\"http://dx.doi.org/10.1103/PhysRevB.9.5056\"><i>Phys. Rev. B</i> <b>9</b>, 5056-5070 (1974)</a>"
}