{
    "extinction": [
        1.47,
        1.5,
        1.52,
        1.55,
        1.58,
        1.61,
        1.64,
        1.67,
        1.7,
        1.73,
        1.76,
        1.79,
        1.82,
        1.86,
        1.91,
        1.94,
        1.99,
        2.03,
        2.08,
        2.14,
        2.19,
        2.25,
        2.32,
        2.38,
        2.45,
        2.51,
        2.59,
        2.67,
        2.74,
        2.82,
        2.9,
        2.98,
        3.06,
        3.14,
        3.23,
        3.33,
        3.43,
        3.54,
        3.65,
        3.78,
        3.91,
        4.03,
        4.18,
        4.35,
        4.53,
        4.74,
        5.02,
        5.41,
        5.95
    ],
    "index": [
        1.48,
        1.55,
        1.59,
        1.62,
        1.63,
        1.67,
        1.7,
        1.72,
        1.73,
        1.74,
        1.78,
        1.81,
        1.82,
        1.82,
        1.83,
        1.84,
        1.85,
        1.86,
        1.85,
        1.85,
        1.86,
        1.86,
        1.86,
        1.86,
        1.87,
        1.89,
        1.89,
        1.92,
        1.96,
        2.0,
        2.06,
        2.11,
        2.19,
        2.25,
        2.32,
        2.39,
        2.47,
        2.51,
        2.56,
        2.62,
        2.7,
        2.83,
        2.97,
        3.1,
        3.3,
        3.48,
        3.65,
        3.78,
        3.89
    ],
    "wavelength": [
        188.0,
        192.0,
        195.0,
        199.0,
        203.0,
        207.0,
        212.0,
        216.0,
        221.0,
        226.0,
        231.0,
        237.0,
        243.0,
        249.0,
        255.0,
        262.0,
        269.0,
        276.0,
        284.0,
        292.0,
        301.0,
        311.0,
        320.0,
        332.0,
        342.0,
        354.0,
        368.0,
        381.0,
        397.0,
        413.0,
        431.0,
        451.0,
        471.0,
        496.0,
        521.0,
        549.0,
        582.0,
        617.0,
        659.0,
        704.0,
        756.0,
        821.0,
        892.0,
        984.0,
        1088.0,
        1216.0,
        1393.0,
        1610.0,
        1937.0
    ],
    "reference": "P. B. Johnson and R. W. Christy. Optical constants of transition metals: Ti, V, Cr, Mn, Fe, Co, Ni, and Pd, <a href=\"http://dx.doi.org/10.1103/PhysRevB.9.5056\"><i>Phys. Rev. B</i> <b>9</b>, 5056-5070 (1974)</a>"
}