{
    "extinction": [
        5.38e-11,
        1.35e-10,
        4.8e-10,
        2.04e-09,
        3.33e-08,
        8.27e-08,
        2.75e-07,
        1.19e-06,
        1.75e-05,
        4.76e-05,
        1.5e-05,
        8.15e-06,
        7.09e-06,
        8.94e-06,
        1.86e-05,
        4.41e-05,
        0.000139,
        0.000266,
        0.000375,
        0.000542,
        0.000811,
        0.00125,
        0.00215,
        0.00407,
        0.0053,
        0.00711,
        0.00816,
        0.00885,
        0.01,
        0.0116,
        0.0135,
        0.0152,
        0.0166,
        0.0177,
        0.0193,
        0.0225,
        0.0268,
        0.031,
        0.033,
        0.0337,
        0.0334,
        0.0334,
        0.0336,
        0.0345,
        0.0352,
        0.036,
        0.0374,
        0.0414,
        0.0475,
        0.0526,
        0.0533,
        0.0503,
        0.0458,
        0.0432,
        0.0414,
        0.0409,
        0.041,
        0.0408,
        0.0409,
        0.0418,
        0.0412,
        0.0406,
        0.0398,
        0.0401,
        0.0407,
        0.0393,
        0.0388,
        0.0376,
        0.0372,
        0.0358,
        0.0379,
        0.0417,
        0.0418,
        0.0338,
        0.0106,
        0.00492,
        0.00492,
        0.00496,
        0.00502,
        0.00597,
        0.00686,
        0.00736,
        0.00884,
        0.0102,
        0.0114,
        0.0141,
        0.0154,
        0.0169,
        0.0196,
        0.0252,
        0.033,
        0.0454,
        0.0592,
        0.0731,
        0.0792,
        0.0916,
        0.111,
        0.127,
        0.145,
        0.158,
        0.176,
        0.296,
        0.499,
        0.647,
        0.787,
        0.926,
        1.06,
        1.19,
        1.23,
        1.27,
        1.31,
        1.35,
        1.39,
        1.44,
        1.49,
        1.56,
        1.64,
        1.74,
        2.0,
        2.63,
        3.66,
        5.74,
        7.96,
        12.8,
        14.5,
        15.5,
        10.2,
        8.98,
        9.33,
        12.2,
        14.7,
        16.8,
        19.5,
        22.2,
        25.1,
        28.8,
        32.6,
        37.6,
        48.8,
        60.2
    ],
    "index": [
        1.0,
        1.0,
        1.0,
        1.001,
        1.0,
        1.0,
        0.9999,
        0.9998,
        0.9999,
        1.0,
        1.0,
        1.0,
        0.9999,
        1.0,
        0.9999,
        0.9996,
        0.999,
        0.9987,
        0.9984,
        0.9977,
        0.9974,
        0.9963,
        0.9948,
        0.9923,
        0.9911,
        0.9891,
        0.9881,
        0.9871,
        0.986,
        0.9849,
        0.9846,
        0.9847,
        0.9846,
        0.9841,
        0.9829,
        0.9815,
        0.9815,
        0.9838,
        0.986,
        0.9867,
        0.987,
        0.987,
        0.987,
        0.988,
        0.988,
        0.987,
        0.986,
        0.984,
        0.986,
        0.992,
        1.0,
        1.005,
        1.008,
        1.008,
        1.008,
        1.008,
        1.008,
        1.009,
        1.01,
        1.011,
        1.012,
        1.013,
        1.013,
        1.014,
        1.015,
        1.017,
        1.018,
        1.019,
        1.02,
        1.021,
        1.023,
        1.03,
        1.04,
        1.05,
        1.053,
        1.04,
        1.033,
        1.023,
        1.018,
        1.004,
        0.997,
        0.989,
        0.982,
        0.975,
        0.967,
        0.959,
        0.95,
        0.939,
        0.924,
        0.906,
        0.885,
        0.861,
        0.833,
        0.798,
        0.741,
        0.692,
        0.644,
        0.577,
        0.477,
        0.404,
        0.293,
        0.11,
        0.0723,
        0.0691,
        0.0717,
        0.0858,
        0.115,
        0.155,
        0.171,
        0.184,
        0.194,
        0.199,
        0.197,
        0.187,
        0.166,
        0.14,
        0.121,
        0.112,
        0.111,
        0.132,
        0.184,
        0.382,
        0.791,
        2.997,
        4.776,
        8.269,
        11.2,
        8.809,
        6.056,
        4.194,
        4.509,
        5.056,
        6.069,
        7.519,
        9.516,
        12.3,
        15.2,
        18.9,
        23.8,
        30.3
    ],
    "wavelength": [
        0.0248,
        0.031,
        0.04133,
        0.061989999999999996,
        0.124,
        0.155,
        0.2066,
        0.31,
        0.6199,
        0.8266,
        0.9537,
        0.9840000000000001,
        0.9919,
        1.0330000000000001,
        1.24,
        1.55,
        2.0660000000000003,
        2.48,
        2.755,
        3.1,
        3.542,
        4.133,
        4.959,
        6.199,
        6.888,
        7.749,
        8.266,
        8.551,
        8.856,
        9.184,
        9.537,
        9.919,
        10.33,
        10.78,
        11.270000000000001,
        11.809999999999999,
        12.4,
        13.05,
        13.780000000000001,
        13.93,
        14.09,
        14.25,
        14.42,
        14.76,
        15.12,
        15.5,
        15.9,
        16.310000000000002,
        16.75,
        17.22,
        17.71,
        18.23,
        18.790000000000003,
        19.369999999999997,
        20.0,
        20.66,
        21.01,
        21.38,
        21.75,
        22.14,
        22.34,
        22.540000000000003,
        22.75,
        22.96,
        23.169999999999998,
        23.39,
        23.619999999999997,
        23.84,
        24.07,
        24.31,
        24.549999999999997,
        24.8,
        24.9,
        25.0,
        25.1,
        25.2,
        25.3,
        25.56,
        25.83,
        26.950000000000003,
        28.18,
        29.52,
        31.0,
        32.63,
        34.44,
        36.47,
        38.75,
        41.33,
        44.28,
        47.690000000000005,
        51.66,
        56.36,
        61.99,
        68.88,
        77.49000000000001,
        82.66,
        88.56,
        95.36999999999999,
        103.3,
        107.80000000000001,
        112.69999999999999,
        118.1,
        124.0,
        130.5,
        137.8,
        145.9,
        155.0,
        165.3,
        169.8,
        174.6,
        179.7,
        185.1,
        190.70000000000002,
        196.8,
        203.3,
        210.10000000000002,
        217.5,
        221.4,
        248.0,
        310.0,
        413.3,
        619.9,
        826.6,
        1240.0,
        1378.0,
        1550.0,
        1771.0,
        1907.0,
        2066.0,
        2254.0,
        2480.0,
        2755.0,
        3100.0,
        3542.0,
        4133.0,
        4959.0,
        6199.0,
        8266.0,
        12400.0,
        24800.0
    ],
    "reference": "1) H.-J. Hagemann, W. Gudat, and C. Kunz. Optical constants from the far infrared to the x-ray region: Mg, Al, Cu, Ag, Au, Bi, C, and Al<sub>2</sub>O<sub>3</sub>, <a href=\"http://dx.doi.org/10.1364/JOSA.65.000742\"><i>J. Opt. Soc. Am.</i> <b>65</b>, 742-744 (1975)</a><br>2) H.-J. Hagemann, W. Gudat, and C. Kunz. <a href=\"http://refractiveindex.info/download/data/1974/Hagemann 1974 - DESY report SR-74-7.pdf\">DESY report SR-74/7 (1974)</a>"
}