{
    "extinction": [
        0.36385,
        0.3662,
        0.36722,
        0.36721,
        0.36584,
        0.36644,
        0.36731,
        0.36806,
        0.37416,
        0.38266,
        0.39352,
        0.40361,
        0.41615,
        0.42949,
        0.44505,
        0.46691,
        0.49093,
        0.52333,
        0.53631,
        0.55027,
        0.56148,
        0.56923,
        0.56711,
        0.55658,
        0.54072,
        0.54777,
        0.56844,
        0.58846,
        0.60676,
        0.62442,
        0.63815,
        0.64552,
        0.639,
        0.62323,
        0.5965,
        0.57385,
        0.58405,
        0.61668,
        0.67614,
        0.75545,
        0.83582,
        0.89823,
        0.94927,
        1.00194,
        1.05826,
        1.11845,
        1.23211,
        1.34122,
        1.45377,
        1.56934,
        1.68667,
        1.80565,
        1.92864,
        2.05838,
        2.19475,
        2.34128,
        2.50152,
        2.66483,
        2.85991,
        3.0735,
        3.29351,
        3.53785,
        3.80193,
        4.08981,
        4.40608,
        4.7505,
        5.14953,
        5.58189,
        6.05402,
        6.55726,
        7.08259,
        7.643,
        8.31237,
        9.19529,
        10.6456,
        14.2652
    ],
    "index": [
        1.20846,
        1.20004,
        1.19493,
        1.19073,
        1.18399,
        1.1774,
        1.16958,
        1.15865,
        1.1463,
        1.13509,
        1.1251,
        1.1153,
        1.10417,
        1.09246,
        1.07841,
        1.06391,
        1.05005,
        1.0395,
        1.03857,
        1.0413,
        1.04545,
        1.05405,
        1.06152,
        1.06094,
        1.04397,
        1.00864,
        0.98779,
        0.97457,
        0.96496,
        0.95609,
        0.95275,
        0.95194,
        0.946,
        0.92904,
        0.8927,
        0.81658,
        0.71715,
        0.58506,
        0.50958,
        0.4588,
        0.4376,
        0.43614,
        0.42769,
        0.4123,
        0.39938,
        0.38978,
        0.38613,
        0.38584,
        0.38658,
        0.39348,
        0.40109,
        0.41398,
        0.43087,
        0.45157,
        0.47636,
        0.50656,
        0.54187,
        0.58934,
        0.64425,
        0.71303,
        0.79824,
        0.898,
        1.02698,
        1.186,
        1.38332,
        1.62088,
        1.90988,
        2.28417,
        2.74611,
        3.3238,
        4.05007,
        4.9614,
        6.08732,
        7.57453,
        9.7411,
        13.9816
    ],
    "wavelength": [
        63.58,
        65.25,
        67.02,
        68.88,
        70.85,
        72.92999999999999,
        75.14,
        77.49000000000001,
        79.99000000000001,
        82.66,
        85.51,
        88.56,
        91.84,
        95.36999999999999,
        99.19,
        103.32,
        107.81,
        112.71000000000001,
        114.8,
        116.97,
        119.22000000000001,
        121.55000000000001,
        123.98,
        126.51,
        129.14999999999998,
        131.89999999999998,
        134.77,
        137.76,
        140.89,
        144.17,
        147.60000000000002,
        151.2,
        154.98000000000002,
        158.95000000000002,
        163.14000000000001,
        167.55,
        172.2,
        177.12,
        179.69,
        182.32999999999998,
        185.04999999999998,
        187.85,
        190.73999999999998,
        193.73000000000002,
        196.8,
        199.97,
        206.64,
        213.76999999999998,
        221.4,
        229.6,
        238.43,
        247.97,
        258.29999999999995,
        269.53,
        281.78,
        295.20000000000005,
        309.96000000000004,
        326.27,
        344.4,
        364.65999999999997,
        387.45,
        413.28,
        442.8,
        476.86,
        516.5999999999999,
        563.56,
        619.9200000000001,
        688.8,
        774.9,
        885.6,
        1033.1999999999998,
        1239.8400000000001,
        1549.8,
        2066.3999999999996,
        3099.6,
        6199.21
    ],
    "reference": "T. Inagaki, E. T. Arakawa, and M. W. Williams. Optical properties of liquid mercury, <a href=\"http://dx.doi.org/10.1103/PhysRevB.23.5246\"><i>Phys. Rev. B</i> <b>23</b>, 5246-5262 (1981)</a>"
}