{
    "extinction": [
        1.59,
        1.63,
        1.67,
        1.71,
        1.75,
        1.78,
        1.82,
        1.84,
        1.85,
        1.86,
        1.87,
        1.89,
        1.91,
        1.93,
        1.97,
        2.01,
        2.04,
        2.09,
        2.14,
        2.19,
        2.25,
        2.31,
        2.37,
        2.44,
        2.52,
        2.61,
        2.71,
        2.82,
        2.93,
        3.05,
        3.17,
        3.28,
        3.41,
        3.55,
        3.68,
        3.82,
        3.96,
        4.11,
        4.27,
        4.45,
        4.64,
        4.88,
        5.16,
        5.5,
        5.88,
        6.31,
        6.77,
        7.26,
        7.79
    ],
    "index": [
        1.16,
        1.21,
        1.26,
        1.29,
        1.32,
        1.36,
        1.38,
        1.41,
        1.43,
        1.45,
        1.47,
        1.47,
        1.46,
        1.45,
        1.45,
        1.44,
        1.44,
        1.44,
        1.44,
        1.44,
        1.44,
        1.44,
        1.45,
        1.46,
        1.48,
        1.49,
        1.5,
        1.53,
        1.57,
        1.61,
        1.67,
        1.74,
        1.81,
        1.88,
        1.97,
        2.05,
        2.13,
        2.19,
        2.25,
        2.31,
        2.4,
        2.53,
        2.65,
        2.78,
        2.94,
        3.17,
        3.42,
        3.61,
        3.87
    ],
    "wavelength": [
        188.0,
        192.0,
        195.0,
        199.0,
        203.0,
        207.0,
        212.0,
        216.0,
        221.0,
        226.0,
        231.0,
        237.0,
        243.0,
        249.0,
        255.0,
        262.0,
        269.0,
        276.0,
        284.0,
        292.0,
        301.0,
        311.0,
        320.0,
        332.0,
        342.0,
        354.0,
        368.0,
        381.0,
        397.0,
        413.0,
        431.0,
        451.0,
        471.0,
        496.0,
        521.0,
        549.0,
        582.0,
        617.0,
        659.0,
        704.0,
        756.0,
        821.0,
        892.0,
        984.0,
        1088.0,
        1216.0,
        1393.0,
        1610.0,
        1937.0
    ],
    "reference": "P. B. Johnson and R. W. Christy. Optical constants of transition metals: Ti, V, Cr, Mn, Fe, Co, Ni, and Pd, <a href=\"http://dx.doi.org/10.1103/PhysRevB.9.5056\"><i>Phys. Rev. B</i> <b>9</b>, 5056-5070 (1974)</a>"
}