{
    "extinction": [
        3.444,
        3.424,
        3.435,
        3.452,
        3.453,
        3.5,
        3.552,
        3.609,
        3.668,
        3.732,
        3.805,
        3.89,
        3.977,
        4.074,
        4.181,
        4.29,
        4.416,
        4.553,
        4.695,
        4.84,
        4.972,
        5.09,
        5.189,
        5.263,
        5.311,
        5.348,
        5.356,
        5.303,
        5.164,
        4.959,
        4.727,
        4.506,
        4.304,
        4.126,
        3.973,
        3.845,
        3.734,
        3.639,
        3.555,
        3.482,
        3.419,
        3.362,
        3.315,
        3.266,
        3.227,
        3.189,
        3.151,
        3.116,
        3.083,
        3.053,
        3.021,
        2.997,
        2.974,
        2.951,
        2.935,
        2.921,
        2.912,
        2.905,
        2.904,
        2.907,
        2.918,
        2.923,
        2.929,
        2.912,
        2.849,
        2.732,
        2.555,
        2.319,
        2.049,
        1.758,
        1.484,
        1.236,
        1.033,
        0.875,
        0.742,
        0.645,
        0.57,
        0.509,
        0.457,
        0.415,
        0.38,
        0.348,
        0.321,
        0.296,
        0.275,
        0.258,
        0.242,
        0.227,
        0.215,
        0.203,
        0.192,
        0.182,
        0.173,
        0.165,
        0.158,
        0.151,
        0.145,
        0.138,
        0.133,
        0.127,
        0.123,
        0.118,
        0.115,
        0.109,
        0.107,
        0.103,
        0.099,
        0.096,
        0.092,
        0.085,
        0.079,
        0.074,
        0.068,
        0.064,
        0.06,
        0.057,
        0.053,
        0.05,
        0.047,
        0.045,
        0.042,
        0.04,
        0.038,
        0.036,
        0.034,
        0.033,
        0.031,
        0.03,
        0.029,
        0.028,
        0.026,
        0.025,
        0.025,
        0.023,
        0.023,
        0.022,
        0.022,
        0.021,
        0.019,
        0.019,
        0.019,
        0.018,
        0.017,
        0.017,
        0.016,
        0.016,
        0.015,
        0.014,
        0.014,
        0.014,
        0.013,
        0.013,
        0.012,
        0.013,
        0.012,
        0.012,
        0.01,
        0.011,
        0.011,
        0.01,
        0.009,
        0.01,
        0.01,
        0.011,
        0.008,
        0.009,
        0.008,
        0.007,
        0.008,
        0.008,
        0.007,
        0.006,
        0.007,
        0.006,
        0.005,
        0.007,
        0.009,
        0.006,
        0.007,
        0.007,
        0.007,
        0.005,
        0.005,
        0.006,
        0.005,
        0.004
    ],
    "index": [
        1.688,
        1.701,
        1.691,
        1.683,
        1.678,
        1.683,
        1.683,
        1.683,
        1.693,
        1.706,
        1.734,
        1.742,
        1.773,
        1.799,
        1.838,
        1.889,
        1.953,
        2.025,
        2.129,
        2.265,
        2.432,
        2.61,
        2.825,
        3.055,
        3.279,
        3.545,
        3.834,
        4.142,
        4.435,
        4.688,
        4.861,
        4.966,
        5.024,
        5.059,
        5.076,
        5.079,
        5.078,
        5.072,
        5.077,
        5.073,
        5.078,
        5.086,
        5.088,
        5.104,
        5.11,
        5.12,
        5.137,
        5.161,
        5.181,
        5.194,
        5.22,
        5.245,
        5.269,
        5.295,
        5.327,
        5.359,
        5.393,
        5.435,
        5.486,
        5.548,
        5.625,
        5.729,
        5.856,
        6.018,
        6.212,
        6.421,
        6.617,
        6.773,
        6.871,
        6.909,
        6.88,
        6.792,
        6.676,
        6.548,
        6.406,
        6.282,
        6.173,
        6.069,
        5.972,
        5.88,
        5.803,
        5.726,
        5.651,
        5.585,
        5.522,
        5.461,
        5.406,
        5.352,
        5.301,
        5.254,
        5.21,
        5.168,
        5.125,
        5.087,
        5.052,
        5.015,
        4.983,
        4.95,
        4.921,
        4.893,
        4.865,
        4.841,
        4.815,
        4.79,
        4.766,
        4.742,
        4.718,
        4.695,
        4.673,
        4.622,
        4.574,
        4.529,
        4.488,
        4.45,
        4.413,
        4.379,
        4.345,
        4.317,
        4.29,
        4.262,
        4.237,
        4.214,
        4.19,
        4.168,
        4.148,
        4.129,
        4.108,
        4.092,
        4.075,
        4.059,
        4.042,
        4.027,
        4.013,
        3.998,
        3.984,
        3.971,
        3.96,
        3.948,
        3.937,
        3.926,
        3.914,
        3.904,
        3.893,
        3.885,
        3.877,
        3.869,
        3.85,
        3.842,
        3.834,
        3.828,
        3.819,
        3.813,
        3.804,
        3.798,
        3.791,
        3.785,
        3.779,
        3.772,
        3.766,
        3.76,
        3.756,
        3.75,
        3.744,
        3.738,
        3.736,
        3.731,
        3.725,
        3.72,
        3.719,
        3.712,
        3.706,
        3.706,
        3.699,
        3.695,
        3.691,
        3.686,
        3.683,
        3.682,
        3.676,
        3.673,
        3.669,
        3.666,
        3.662,
        3.663,
        3.656,
        3.659
    ],
    "wavelength": [
        234.0,
        236.0,
        238.0,
        240.0,
        242.0,
        244.0,
        246.0,
        248.0,
        250.0,
        252.0,
        254.0,
        256.0,
        258.0,
        260.0,
        262.0,
        264.0,
        266.0,
        268.0,
        270.0,
        272.0,
        274.0,
        276.0,
        278.0,
        280.0,
        282.0,
        284.0,
        286.0,
        288.0,
        290.0,
        292.0,
        294.0,
        296.0,
        298.0,
        300.0,
        302.0,
        304.0,
        306.0,
        308.0,
        310.0,
        312.0,
        314.0,
        316.0,
        318.0,
        320.0,
        322.0,
        324.0,
        326.0,
        328.0,
        330.0,
        332.0,
        334.0,
        336.0,
        338.0,
        340.0,
        342.0,
        344.0,
        346.0,
        348.0,
        350.0,
        352.0,
        354.0,
        356.0,
        358.0,
        360.0,
        362.0,
        364.0,
        366.0,
        368.0,
        370.0,
        372.0,
        374.0,
        376.0,
        378.0,
        380.0,
        382.0,
        384.0,
        386.0,
        388.0,
        390.0,
        392.0,
        394.0,
        396.0,
        398.0,
        400.0,
        402.0,
        404.0,
        406.0,
        408.0,
        410.0,
        412.0,
        414.0,
        416.0,
        418.0,
        420.0,
        422.0,
        424.0,
        426.0,
        428.0,
        430.0,
        432.0,
        434.0,
        436.0,
        438.0,
        440.0,
        442.0,
        444.0,
        446.0,
        448.0,
        450.0,
        455.0,
        460.0,
        465.0,
        470.0,
        475.0,
        480.0,
        485.0,
        490.0,
        495.0,
        500.0,
        505.0,
        510.0,
        515.0,
        520.0,
        525.0,
        530.0,
        535.0,
        540.0,
        545.0,
        550.0,
        555.0,
        560.0,
        565.0,
        570.0,
        575.0,
        580.0,
        585.0,
        590.0,
        595.0,
        600.0,
        605.0,
        610.0,
        615.0,
        620.0,
        625.0,
        630.0,
        635.0,
        645.0,
        650.0,
        655.0,
        660.0,
        665.0,
        670.0,
        675.0,
        680.0,
        685.0,
        690.0,
        695.0,
        700.0,
        705.0,
        710.0,
        715.0,
        720.0,
        725.0,
        730.0,
        735.0,
        740.0,
        745.0,
        750.0,
        755.0,
        760.0,
        765.0,
        770.0,
        775.0,
        780.0,
        785.0,
        790.0,
        795.0,
        800.0,
        805.0,
        810.0,
        815.0,
        820.0,
        825.0,
        830.0,
        835.0,
        840.0
    ],
    "reference": "G.E. Jellison Jr. Optical functions of silicon determined by two-channel polarization modulation ellipsometry, <a href=\"http://dx.doi.org/10.1016/0925-3467(92)90015-F\"><i>Opt. Mat.</i> <b>1</b>, 41-47 (1992)</a>"
}